Frequency (Hz),Level (dB)
43.066406,-32.715694
86.132812,-28.705044
129.199219,-17.739489
172.265625,-13.371507
215.332031,-21.561115
258.398438,-31.884977
301.464844,-29.589022
344.53125,-27.475771
387.597656,-33.232918
430.664062,-33.202763
473.730469,-35.178303
516.796875,-35.596355
559.863281,-38.335827
602.929688,-38.591793
645.996094,-51.375904
689.0625,-53.49966
732.128906,-50.306709
775.195312,-51.196892
818.261719,-52.282719
861.328125,-52.213825
904.394531,-50.39975
947.460938,-52.629982
990.527344,-51.656975
1033.59375,-55.021347
1076.660156,-55.330631
1119.726562,-53.794037
1162.792969,-48.962467
1205.859375,-52.386116
1248.925781,-53.069752
1291.992188,-53.668919
1335.058594,-56.626392
1378.125,-59.393181
1421.191406,-63.207832
1464.257812,-64.259804
1507.324219,-61.267601
1550.390625,-62.063244
1593.457031,-62.616009
1636.523438,-63.153507
1679.589844,-58.751163
1722.65625,-54.426693
1765.722656,-54.279747
1808.789062,-62.849026
1851.855469,-65.59156
1894.921875,-65.775192
1937.988281,-66.128563
1981.054688,-65.551414
2024.121094,-65.254997
2067.1875,-64.785423
2110.253906,-65.859085
2153.320312,-66.381226
2196.386719,-61.374481
2239.453125,-61.895405
2282.519531,-66.001396
2325.585938,-65.498154
2368.652344,-64.284042
2411.71875,-65.535301
2454.785156,-66.782745
2497.851562,-67.385216
2540.917969,-67.881393
2583.984375,-67.217171
2627.050781,-67.074104
2670.117188,-67.30584
2713.183594,-65.998436
2756.25,-65.664085
2799.316406,-67.098228
2842.382812,-65.375954
2885.449219,-67.101494
2928.515625,-69.188332
2971.582031,-68.587181
3014.648438,-68.18515
3057.714844,-68.914055
3100.78125,-70.017021
3143.847656,-69.186646
3186.914062,-69.450157
3229.980469,-68.935257
3273.046875,-70.623405
3316.113281,-70.443329
3359.179688,-69.861084
3402.246094,-69.765366
3445.3125,-71.303307
3488.378906,-71.250946
3531.445312,-71.649429
3574.511719,-72.717384
3617.578125,-72.475067
3660.644531,-71.579155
3703.710938,-71.494141
3746.777344,-72.125191
3789.84375,-72.912857
3832.910156,-72.379486
3875.976562,-72.241837
3919.042969,-72.306488
3962.109375,-72.871513
4005.175781,-73.541199
4048.242188,-73.335266
4091.308594,-72.443642
4134.375,-72.8731
4177.441406,-72.887962
4220.507812,-73.430252
4263.574219,-73.649269
4306.640625,-73.418945
4349.707031,-73.786621
4392.773438,-74.37606
4435.839844,-74.047974
4478.90625,-74.174377
4521.972656,-74.152534
4565.039062,-74.644402
4608.105469,-74.11956
4651.171875,-74.468781
4694.238281,-74.794182
4737.304688,-74.9431
4780.371094,-73.369736
4823.4375,-72.689362
4866.503906,-73.555069
4909.570312,-74.226357
4952.636719,-73.619019
4995.703125,-73.503761
5038.769531,-73.85952
5081.835938,-73.976891
5124.902344,-73.136414
5167.96875,-72.179466
5211.035156,-72.886696
5254.101562,-73.826035
5297.167969,-72.986221
5340.234375,-73.539612
5383.300781,-74.976181
5426.367188,-75.355072
5469.433594,-74.417358
5512.5,-73.806046
5555.566406,-73.966187
5598.632812,-74.127899
5641.699219,-74.601845
5684.765625,-74.825226
5727.832031,-75.788864
5770.898438,-75.701935
5813.964844,-75.748665
5857.03125,-75.573952
5900.097656,-75.182419
5943.164062,-75.363609
5986.230469,-75.950951
6029.296875,-75.408211
6072.363281,-75.430237
6115.429688,-75.48584
6158.496094,-75.466309
6201.5625,-75.466919
6244.628906,-75.27713
6287.695312,-75.947281
6330.761719,-76.508965
6373.828125,-76.315544
6416.894531,-75.693779
6459.960938,-75.456268
6503.027344,-75.7994
6546.09375,-76.520988
6589.160156,-76.228966
6632.226562,-75.15493
6675.292969,-75.669418
6718.359375,-76.058083
6761.425781,-75.461388
6804.492188,-75.586174
6847.558594,-76.41095
6890.625,-76.261314
6933.691406,-76.368279
6976.757812,-76.363045
7019.824219,-76.195557
7062.890625,-76.685944
7105.957031,-75.918922
7149.023438,-75.833946
7192.089844,-76.3339
7235.15625,-75.68396
7278.222656,-76.192329
7321.289062,-76.355431
7364.355469,-76.413185
7407.421875,-76.604584
7450.488281,-76.444199
7493.554688,-75.941162
7536.621094,-75.806847
7579.6875,-75.396645
7622.753906,-75.724609
7665.820312,-76.605537
7708.886719,-76.507004
7751.953125,-76.607773
7795.019531,-77.438202
7838.085938,-76.591568
7881.152344,-75.443947
7924.21875,-75.485443
7967.285156,-75.93998
8010.351562,-75.682014
8053.417969,-75.799232
8096.484375,-76.557854
8139.550781,-77.050171
8182.617188,-76.873436
8225.683594,-76.712059
8268.75,-76.83342
8311.816406,-76.730507
8354.882812,-77.199532
8397.949219,-76.90657
8441.015625,-76.999863
8484.082031,-76.816658
8527.148438,-76.560539
8570.214844,-76.435966
8613.28125,-77.281479
8656.347656,-77.116356
8699.414062,-77.624191
8742.480469,-76.978294
8785.546875,-76.834465
8828.613281,-77.346519
8871.679688,-77.561096
8914.746094,-77.62606
8957.8125,-77.670403
9000.878906,-77.339333
9043.945312,-77.101326
9087.011719,-77.490509
9130.078125,-77.505486
9173.144531,-77.835632
9216.210938,-77.578224
9259.277344,-76.882729
9302.34375,-76.726967
9345.410156,-76.619118
9388.476562,-76.451614
9431.542969,-76.251495
9474.609375,-76.312309
9517.675781,-76.529205
9560.742188,-77.600769
9603.808594,-77.208626
9646.875,-76.669571
9689.941406,-76.038765
9733.007812,-75.862
9776.074219,-76.998787
9819.140625,-76.635536
9862.207031,-76.987495
9905.273438,-76.933205
9948.339844,-76.742775
9991.40625,-77.314453
10034.47266,-77.061592
10077.53906,-77.092018
10120.60547,-77.772224
10163.67188,-77.728455
10206.73828,-77.015053
10249.80469,-76.671532
10292.87109,-77.071953
10335.9375,-77.063751
10379.00391,-76.714211
10422.07031,-76.077095
10465.13672,-76.338692
10508.20313,-76.756142
10551.26953,-76.850372
10594.33594,-77.345222
10637.40234,-77.770889
10680.46875,-76.868652
10723.53516,-77.056076
10766.60156,-77.458481
10809.66797,-77.61116
10852.73438,-76.705811
10895.80078,-77.487717
10938.86719,-77.625763
10981.93359,-77.538139
11025,-77.775276
11068.06641,-77.713211
11111.13281,-77.154091
11154.19922,-77.118767
11197.26563,-76.90638
11240.33203,-76.399925
11283.39844,-77.585785
11326.46484,-77.152908
11369.53125,-76.502823
11412.59766,-77.655212
11455.66406,-76.802338
11498.73047,-77.655807
11541.79688,-76.880875
11584.86328,-76.374573
11627.92969,-76.94426
11670.99609,-78.447853
11714.0625,-78.301086
11757.12891,-78.646881
11800.19531,-77.77076
11843.26172,-76.80722
11886.32813,-77.550217
11929.39453,-77.792839
11972.46094,-76.962273
12015.52734,-77.254852
12058.59375,-77.472054
12101.66016,-77.402557
12144.72656,-77.189995
12187.79297,-78.254532
12230.85938,-78.174683
12273.92578,-78.135529
12316.99219,-77.724838
12360.05859,-77.873932
12403.125,-78.80368
12446.19141,-77.928482
12489.25781,-77.34185
12532.32422,-77.839775
12575.39063,-76.995934
12618.45703,-78.158463
12661.52344,-78.366051
12704.58984,-77.328323
12747.65625,-77.170181
12790.72266,-77.954201
12833.78906,-77.535057
12876.85547,-76.862381
12919.92188,-76.207672
12962.98828,-76.117401
13006.05469,-76.829971
13049.12109,-76.491676
13092.1875,-76.725441
13135.25391,-76.915657
13178.32031,-76.256966
13221.38672,-76.75013
13264.45313,-77.332878
13307.51953,-77.222946
13350.58594,-76.96447
13393.65234,-75.630211
13436.71875,-75.738228
13479.78516,-76.41996
13522.85156,-76.175453
13565.91797,-76.897995
13608.98438,-76.953796
13652.05078,-76.145561
13695.11719,-76.252281
13738.18359,-75.795471
13781.25,-76.145096
13824.31641,-77.287727
13867.38281,-76.700409
13910.44922,-76.563553
13953.51563,-76.596924
13996.58203,-75.980759
14039.64844,-75.46347
14082.71484,-75.955933
14125.78125,-75.492271
14168.84766,-75.516869
14211.91406,-75.526932
14254.98047,-75.927643
14298.04688,-75.977776
14341.11328,-75.468208
14384.17969,-74.928001
14427.24609,-74.854752
14470.3125,-74.550896
14513.37891,-75.497704
14556.44531,-75.300217
14599.51172,-75.305908
14642.57813,-74.524452
14685.64453,-74.015259
14728.71094,-74.393517
14771.77734,-75.054008
14814.84375,-75.256233
14857.91016,-74.779213
14900.97656,-73.795845
14944.04297,-74.331841
14987.10938,-74.337395
15030.17578,-73.569054
15073.24219,-73.597763
15116.30859,-74.191772
15159.375,-74.324028
15202.44141,-74.354546
15245.50781,-74.138977
15288.57422,-74.571114
15331.64063,-73.827377
15374.70703,-72.603363
15417.77344,-74.055023
15460.83984,-74.334541
15503.90625,-72.874947
15546.97266,-72.692039
15590.03906,-72.197876
15633.10547,-72.111099
15676.17188,-71.135727
15719.23828,-71.013885
15762.30469,-71.349014
15805.37109,-70.857956
15848.4375,-71.317871
15891.50391,-71.856659
15934.57031,-72.071472
15977.63672,-71.650581
16020.70313,-71.664726
16063.76953,-71.800171
16106.83594,-71.672112
16149.90234,-71.711433
16192.96875,-71.303963
16236.03516,-72.000961
16279.10156,-71.448792
16322.16797,-71.045158
16365.23438,-71.906151
16408.30078,-71.978348
16451.36719,-71.832985
16494.43359,-71.288704
16537.5,-71.015236
16580.56641,-70.462875
16623.63281,-70.514885
16666.69922,-70.858368
16709.76563,-71.201332
16752.83203,-71.759735
16795.89844,-71.398766
16838.96484,-71.714409
16882.03125,-70.869774
16925.09766,-71.308815
16968.16406,-71.686119
17011.23047,-71.734329
17054.29688,-72.75354
17097.36328,-72.727928
17140.42969,-73.083168
17183.49609,-73.164299
17226.5625,-72.934769
17269.62891,-73.01516
17312.69531,-73.255219
17355.76172,-73.884949
17398.82813,-73.227325
17441.89453,-72.44622
17484.96094,-72.097374
17528.02734,-73.391525
17571.09375,-73.834785
17614.16016,-75.17437
17657.22656,-75.046257
17700.29297,-74.445145
17743.35938,-75.310783
17786.42578,-74.844635
17829.49219,-75.098938
17872.55859,-75.940819
17915.625,-76.112549
17958.69141,-75.18396
18001.75781,-75.437843
18044.82422,-75.324097
18087.89063,-75.833168
18130.95703,-75.621208
18174.02344,-74.963707
18217.08984,-76.031425
18260.15625,-76.269524
18303.22266,-75.308479
18346.28906,-75.125839
18389.35547,-75.307968
18432.42188,-76.760742
18475.48828,-75.763397
18518.55469,-75.221039
18561.62109,-76.676369
18604.6875,-75.730309
18647.75391,-75.532364
18690.82031,-76.15361
18733.88672,-76.264175
18776.95313,-76.181862
18820.01953,-76.513931
18863.08594,-77.016212
18906.15234,-76.447983
18949.21875,-75.920692
18992.28516,-76.845924
19035.35156,-76.462357
19078.41797,-76.132942
19121.48438,-76.765121
19164.55078,-76.691246
19207.61719,-75.762032
19250.68359,-75.31945
19293.75,-76.062302
19336.81641,-76.128639
19379.88281,-76.409088
19422.94922,-75.45182
19466.01563,-75.065659
19509.08203,-75.723373
19552.14844,-75.655655
19595.21484,-76.82869
19638.28125,-77.294518
19681.34766,-77.311462
19724.41406,-76.400101
19767.48047,-75.946655
19810.54688,-75.818047
19853.61328,-76.408966
19896.67969,-77.109367
19939.74609,-76.798904
19982.8125,-76.554871
20025.87891,-76.229515
20068.94531,-76.262093
20112.01172,-76.10408
20155.07813,-76.882965
20198.14453,-77.158966
20241.21094,-76.454338
20284.27734,-76.560822
20327.34375,-77.056595
20370.41016,-76.931213
20413.47656,-76.939041
20456.54297,-77.010597
20499.60938,-77.558502
20542.67578,-77.469482
20585.74219,-77.399208
20628.80859,-77.406113
20671.875,-78.197159
20714.94141,-78.739403
20758.00781,-78.224922
20801.07422,-78.571518
20844.14063,-78.882492
20887.20703,-79.258278
20930.27344,-80.231026
20973.33984,-79.101471
21016.40625,-78.905502
21059.47266,-78.98642
21102.53906,-79.68058
21145.60547,-80.254349
21188.67188,-80.829239
21231.73828,-81.747383
21274.80469,-82.017517
21317.87109,-82.302498
21360.9375,-83.111618
21404.00391,-82.832207
21447.07031,-83.028725
21490.13672,-83.631516
21533.20313,-84.033203
21576.26953,-83.668701
21619.33594,-83.875656
21662.40234,-84.205147
21705.46875,-80.871391
21748.53516,-82.43602
21791.60156,-87.359619
21834.66797,-87.437859
21877.73438,-87.920845
21920.80078,-87.928741
21963.86719,-86.738266
22006.93359,-87.767914
